# E (eV)   ldos(E)   pdos(E)   
  -3.973  0.134E+00  0.134E+00
  -3.873  0.212E+00  0.212E+00
  -3.773  0.311E+00  0.311E+00
  -3.673  0.260E+00  0.260E+00
  -3.573  0.309E+00  0.309E+00
  -3.473  0.372E+00  0.372E+00
  -3.373  0.215E+00  0.215E+00
  -3.273  0.213E+00  0.213E+00
  -3.173  0.268E+00  0.268E+00
  -3.073  0.318E+00  0.318E+00
  -2.973  0.936E-01  0.936E-01
  -2.873  0.145E+00  0.145E+00
  -2.773  0.317E+00  0.317E+00
  -2.673  0.340E+00  0.340E+00
  -2.573  0.424E+00  0.424E+00
  -2.473  0.164E+00  0.164E+00
  -2.373  0.662E-01  0.662E-01
  -2.273  0.994E-01  0.994E-01
  -2.173  0.323E-01  0.323E-01
  -2.073  0.722E-01  0.722E-01
  -1.973  0.919E-01  0.919E-01
  -1.873  0.468E-01  0.468E-01
  -1.773  0.645E-01  0.645E-01
  -1.673  0.128E+00  0.128E+00
  -1.573  0.195E+00  0.195E+00
  -1.473  0.139E+00  0.139E+00
  -1.373  0.546E-01  0.546E-01
  -1.273  0.130E-01  0.130E-01
  -1.173  0.545E-01  0.545E-01
  -1.073  0.771E-01  0.771E-01
  -0.973  0.178E-01  0.178E-01
  -0.873  0.461E-01  0.461E-01
  -0.773  0.200E+00  0.200E+00
  -0.673  0.325E+00  0.325E+00
  -0.573  0.357E+00  0.357E+00
  -0.473  0.361E+00  0.361E+00
  -0.373  0.315E+00  0.315E+00
  -0.273  0.104E+00  0.104E+00
  -0.173  0.344E-01  0.344E-01
  -0.073  0.970E-01  0.970E-01
   0.027  0.159E+00  0.159E+00
   0.127  0.204E+00  0.204E+00
   0.227  0.592E-01  0.592E-01
   0.327  0.527E-02  0.527E-02
   0.427  0.388E-01  0.388E-01
   0.527  0.830E-01  0.830E-01
   0.627  0.951E-01  0.951E-01
   0.727  0.116E+00  0.116E+00
   0.827  0.133E+00  0.133E+00
   0.927  0.145E+00  0.145E+00
   1.027  0.700E-01  0.700E-01
   1.127  0.258E-01  0.258E-01
   1.227  0.108E-01  0.108E-01
   1.327  0.109E-01  0.109E-01
   1.427  0.562E-01  0.562E-01
   1.527  0.449E-01  0.449E-01
   1.627  0.487E-01  0.487E-01
   1.727  0.105E+00  0.105E+00
   1.827  0.390E-01  0.390E-01
   1.927  0.108E-01  0.108E-01
   2.027  0.141E-01  0.141E-01
   2.127  0.492E-01  0.492E-01
   2.227  0.930E-01  0.930E-01
   2.327  0.538E-01  0.538E-01
   2.427  0.529E-01  0.529E-01
   2.527  0.672E-01  0.672E-01
   2.627  0.597E-01  0.597E-01
   2.727  0.559E-01  0.559E-01
   2.827  0.344E-01  0.344E-01
   2.927  0.461E-01  0.461E-01
   3.027  0.450E-01  0.450E-01
   3.127  0.342E-01  0.342E-01
   3.227  0.177E-01  0.177E-01
   3.327  0.458E-01  0.458E-01
   3.427  0.709E-01  0.709E-01
   3.527  0.447E-01  0.447E-01
   3.627  0.371E-01  0.371E-01
   3.727  0.551E-01  0.551E-01
   3.827  0.264E-01  0.264E-01
   3.927  0.510E-02  0.510E-02
   4.027  0.127E-01  0.127E-01
   4.127  0.364E-01  0.364E-01
   4.227  0.287E-01  0.287E-01
   4.327  0.142E-01  0.142E-01
   4.427  0.209E-01  0.209E-01
   4.527  0.432E-01  0.432E-01
   4.627  0.265E-01  0.265E-01
   4.727  0.437E-02  0.437E-02
   4.827  0.691E-02  0.691E-02
   4.927  0.474E-02  0.474E-02
   5.027  0.706E-03  0.706E-03
   5.127  0.455E-02  0.455E-02
   5.227  0.141E-01  0.141E-01
   5.327  0.830E-02  0.830E-02
   5.427  0.101E-01  0.101E-01
   5.527  0.783E-02  0.783E-02
   5.627  0.884E-03  0.884E-03
   5.727  0.138E-04  0.138E-04
   5.827  0.303E-07  0.303E-07
   5.927  0.504E-09  0.504E-09
   6.027  0.221E-08  0.221E-08
   6.127  0.168E-08  0.168E-08
   6.227  0.392E-09  0.392E-09
   6.327  0.355E-10  0.355E-10
   6.427  0.580E-12  0.580E-12
   6.527  0.133E-14  0.133E-14
