# E (eV)   ldos(E)   pdos(E)   
  -3.973  0.133E+00  0.133E+00
  -3.873  0.211E+00  0.211E+00
  -3.773  0.309E+00  0.309E+00
  -3.673  0.260E+00  0.260E+00
  -3.573  0.308E+00  0.308E+00
  -3.473  0.373E+00  0.373E+00
  -3.373  0.215E+00  0.215E+00
  -3.273  0.213E+00  0.213E+00
  -3.173  0.268E+00  0.268E+00
  -3.073  0.319E+00  0.319E+00
  -2.973  0.948E-01  0.948E-01
  -2.873  0.144E+00  0.144E+00
  -2.773  0.317E+00  0.317E+00
  -2.673  0.340E+00  0.340E+00
  -2.573  0.424E+00  0.424E+00
  -2.473  0.165E+00  0.165E+00
  -2.373  0.659E-01  0.659E-01
  -2.273  0.996E-01  0.996E-01
  -2.173  0.327E-01  0.327E-01
  -2.073  0.723E-01  0.723E-01
  -1.973  0.920E-01  0.920E-01
  -1.873  0.468E-01  0.468E-01
  -1.773  0.640E-01  0.640E-01
  -1.673  0.126E+00  0.126E+00
  -1.573  0.195E+00  0.195E+00
  -1.473  0.141E+00  0.141E+00
  -1.373  0.550E-01  0.550E-01
  -1.273  0.130E-01  0.130E-01
  -1.173  0.544E-01  0.544E-01
  -1.073  0.771E-01  0.771E-01
  -0.973  0.178E-01  0.178E-01
  -0.873  0.460E-01  0.460E-01
  -0.773  0.200E+00  0.200E+00
  -0.673  0.325E+00  0.325E+00
  -0.573  0.357E+00  0.357E+00
  -0.473  0.361E+00  0.361E+00
  -0.373  0.315E+00  0.315E+00
  -0.273  0.105E+00  0.105E+00
  -0.173  0.344E-01  0.344E-01
  -0.073  0.969E-01  0.969E-01
   0.027  0.159E+00  0.159E+00
   0.127  0.204E+00  0.204E+00
   0.227  0.595E-01  0.595E-01
   0.327  0.528E-02  0.528E-02
   0.427  0.387E-01  0.387E-01
   0.527  0.830E-01  0.830E-01
   0.627  0.952E-01  0.952E-01
   0.727  0.116E+00  0.116E+00
   0.827  0.133E+00  0.133E+00
   0.927  0.145E+00  0.145E+00
   1.027  0.702E-01  0.702E-01
   1.127  0.258E-01  0.258E-01
   1.227  0.108E-01  0.108E-01
   1.327  0.109E-01  0.109E-01
   1.427  0.562E-01  0.562E-01
   1.527  0.449E-01  0.449E-01
   1.627  0.487E-01  0.487E-01
   1.727  0.106E+00  0.106E+00
   1.827  0.391E-01  0.391E-01
   1.927  0.108E-01  0.108E-01
   2.027  0.141E-01  0.141E-01
   2.127  0.492E-01  0.492E-01
   2.227  0.931E-01  0.931E-01
   2.327  0.536E-01  0.536E-01
   2.427  0.526E-01  0.526E-01
   2.527  0.673E-01  0.673E-01
   2.627  0.600E-01  0.600E-01
   2.727  0.559E-01  0.559E-01
   2.827  0.344E-01  0.344E-01
   2.927  0.461E-01  0.461E-01
   3.027  0.449E-01  0.449E-01
   3.127  0.344E-01  0.344E-01
   3.227  0.176E-01  0.176E-01
   3.327  0.456E-01  0.456E-01
   3.427  0.711E-01  0.711E-01
   3.527  0.447E-01  0.447E-01
   3.627  0.372E-01  0.372E-01
   3.727  0.552E-01  0.552E-01
   3.827  0.265E-01  0.265E-01
   3.927  0.509E-02  0.509E-02
   4.027  0.127E-01  0.127E-01
   4.127  0.364E-01  0.364E-01
   4.227  0.285E-01  0.285E-01
   4.327  0.143E-01  0.143E-01
   4.427  0.210E-01  0.210E-01
   4.527  0.432E-01  0.432E-01
   4.627  0.265E-01  0.265E-01
   4.727  0.436E-02  0.436E-02
   4.827  0.690E-02  0.690E-02
   4.927  0.475E-02  0.475E-02
   5.027  0.709E-03  0.709E-03
   5.127  0.455E-02  0.455E-02
   5.227  0.141E-01  0.141E-01
   5.327  0.831E-02  0.831E-02
   5.427  0.101E-01  0.101E-01
   5.527  0.783E-02  0.783E-02
   5.627  0.884E-03  0.884E-03
   5.727  0.138E-04  0.138E-04
   5.827  0.300E-07  0.300E-07
   5.927  0.167E-09  0.167E-09
   6.027  0.652E-09  0.652E-09
   6.127  0.559E-09  0.559E-09
   6.227  0.178E-09  0.178E-09
   6.327  0.184E-10  0.184E-10
   6.427  0.305E-12  0.305E-12
   6.527  0.699E-15  0.699E-15
